File: data_raw/brace_buckling_tests/brace-displacement-Zayas_Strut3.csv
Displacement [mm],Force [kN]
-0.046,0.444
-0.414,-48.3
-0.873,-107
-1.2,-152
-1.61,-205
-1.85,-232
-1.67,-194
-1.23,-133
-0.828,-77.3
-0.107,16
0.582,91.6
1.26,167
1.78,221
1.67,196
1.03,121
0.49,60.5
0.0153,6.66
-0.383,-48.3
-0.873,-109
-1.2,-153
-1.59,-206
-1.93,-240
-2.07,-254
-2.24,-259
-2.64,-244
-3.56,-203
-3.11,-155
-1.95,-20.3
-1.36,37.7
-0.797,91.6
-0.261,143
0.276,194
0.873,243
1.3,273
1.87,306
2.73,344
3.37,365
3.37,345
2.42,232
1.81,157
1.26,90.6
0.751,30.5
0.245,-31.7
-0.276,-86.6
-0.736,-129
-1.13,-162
-1.5,-182
-1.93,-194
-2.39,-201
-3,-197
-3.89,-186
-4.93,-168
-4.83,-147
-4,-89.7
-2.96,-19.2
-1.73,64.7
-0.751,137
-0.0306,189
0.659,238
1.49,286
2.19,322
3,356
3.6,375
4.26,384
3.62,297
2.79,189
1.96,83.3
1.59,36.7
1.03,-40
0.582,-101
0.306,-136
0.0306,-165
-0.337,-184
-0.782,-192
-1.35,-190
-1.76,-184
-2.88,-162
-4.21,-128
-5.23,-97
-5.78,-75.2
-5.19,-47.2
-3.8,5.63
-2.67,47.1
-1.99,74
-1.41,98.9
-0.552,136
0.368,180
0.828,205
1.41,236
1.7,252
2.02,262
1.75,207
1.26,144
0.582,67.8
0.0919,13.9
-0.414,-32.7
-0.812,-69
-1.16,-91.8
-1.44,-101
-1.85,-100
-2.57,-89.7
-4.01,-73.1
-5.12,-62.8
-7.03,-48.3
-7.72,-43.1
-6.8,-19.2
-5.69,1.48
-5.04,10.8
-4.4,21.2
-3.33,38.8
-2.41,57.4
-1.66,76.1
-0.996,97.8
-0.368,124
0.352,160
0.828,191
1.2,213
1.5,234
1.96,261
1.24,144
0.812,96.8
0.475,59.5
0.199,27.4
-0.0401,-0.279
-0.537,-49.4
-0.853,-72.8
-1.19,-83.9
-1.89,-80.6
-2.7,-72.8
-3.43,-66.1
-4.62,-57.2
-6.61,-46
-7.78,-38.2
-6.2,-6.97
-5.48,4.18
-3.85,27.6
-2.12,56.6
-1.24,77.8
-0.695,93.4
-0.0401,107
0.456,107
1.22,97.9
1.65,74.5
1.61,47.7
1.31,28.7
0.75,8.65
-0.0627,-15.9
-0.582,-30.4
-1.19,-43.8
-1.82,-53.8
-3.4,-53.8
-5.66,-42.7
-6.72,-20.4
-5.07,-8.09
-2.66,6.41
-0.582,17.6
0.479,18.7
1.27,14.2
1.34,6.41
-0.0627,-1.39
-1.1,-3.63
-2.36,-10.3
-7.85,-22.6
-7.01,-14.8
-6.04,-6.97