File: data_raw/brace_buckling_tests/brace-displacement-Fell_et_al_P1-2.csv
Displacement [mm],Force [kN]
0,0
-0.6012,-125.2524
-0.1812,-46.0428
0.2396,33.2836
0.6759,117.3181
0.9893,162.3619
0.5239,76.479
0.9267,163.6984
-0.6381,-140.2685
-0.8893,-200.9766
0.6759,100.1309
0.7605,130.1586
-0.8031,-170.5626
-0.7236,-170.6514
0.8512,128.1917
-0.9237,-186.9151
0.8856,131.2908
-0.9769,-203.8981
0.9668,143.8027
-1.0347,-218.075
1.0243,156.9362
-1.0983,-232.0788
1.0899,168.5868
-1.1594,-244.1423
1.1627,180.3839
-1.2195,-256.8318
0.8674,124.946
-1.0087,-201.4561
0.9537,144.0691
-1.1288,-229.0374
1.1061,169.6568
-1.2495,-252.5738
1.2193,191.1065
-2.4662,-495.6372
-2.4623,-496.614
-2.4625,-496.8804
-2.459,-497.9904
-2.4691,-497.28
-2.4587,-497.502
-2.4613,-496.836
-2.4538,-497.1912
2.9845,498.2124
-3.1024,-636.1188
-11.7302,-525.6072
-15.2527,-421.7467
-15.2502,-419.2115
-15.2555,-418.1104
-15.2514,-417.9905
-15.2568,-417.2179
-15.256,-416.7695
-15.2517,-416.2322
-14.4302,-363.2986
-9.3904,14.3079
-9.3828,12.7592
-9.3835,11.8952
-9.3853,12.61
-9.3802,12.729
-9.3802,11.2696
-9.3825,11.9547
-9.3749,11.8357
-9.3797,11.4485
-9.3744,11.4183
-9.3772,10.9419
-9.3772,11.0907
-9.3817,10.7333
-9.3792,11.0312
-9.379,10.7035
-9.3764,10.9122
-5.1509,317.2646
2.2388,730.6464
9.9469,987.1452
13.4173,720.7452
7.11,-204.613
-0.6949,-507.5808
-9.3086,-418.3768
-13.3942,-258.7099
-5.7173,106.3868
2.0742,410.2072
9.7399,721.278
13.9906,721.8996
7.6124,-191.8924
-0.3058,-436.0124
-8.844,-387.5454
-17.4084,-331.1574
-25.9385,-289.9897
-26.7843,-237.4379
-26.7919,-237.3491
-26.7843,-236.9317
-26.7894,-236.6653
-21.734,-106.5156
-13.7721,103.1101
-5.669,264.2999
2.3983,432.3672
10.2377,662.004
18.0398,937.4172
26.2433,1044.821
22.9278,328.3735
16.0371,-394.756
7.5969,-412.0054
-0.9771,-354.0634
-9.5054,-306.9061
-18.0203,-272.5006
-26.5024,-246.4067
-26.4338,-200.173
-21.0033,-98.2661
-12.955,59.2607
-4.7579,180.7391
3.4564,289.1106
11.5842,424.1488
19.575,623.1096
27.4244,886.1796
23.2806,225.5742
16.0175,-328.298
7.5804,-345.6052
-0.9475,-312.6293
-9.4226,-281.1408
-17.9403,-253.2887
-26.4287,-226.9817
-34.9783,-186.2935
-39.4564,-142.7105
-39.4437,-141.5206
-39.4462,-141.8447
-39.4386,-141.1609
-39.4437,-141.3696
-31.6433,-46.5223
-23.4074,47.1972
-15.1127,121.0433
-6.841,189.0818
1.4443,264.9526
9.7023,363.9113
17.8206,513.1752
25.7124,739.5264
33.589,998.2896
39.3471,879.1644
32.8244,-1.5694
25.1755,-388.2025
16.6116,-356.6252
7.972,-272.2342
-0.6067,-215.007
-9.0957,-182.4485
-17.5915,-159.9288
-26.0502,-143.8116
-34.5618,-130.9756
-40.132,-107.3192
-40.132,-106.3691
-40.1345,-106.3957
-40.1295,-106.0982
-40.1295,-106.0094
-32.3164,-38.121
-24.0386,21.6361
-15.6538,65.339
-7.3223,104.3622
1.0333,147.6122
9.3596,205.4344
17.6515,297.2758
25.7734,457.9416
33.6525,706.0044
39.6469,826.5504
39.3624,786.6792
35.6489,286.1047
28.4861,-309.3215
19.9243,-286.7396
11.2972,-220.2196
2.7902,-183.4919
-5.7102,-159.9288
-14.1864,-142.6217
-22.6555,-129.6924
-31.1455,-119.4449
-39.6367,-110.7158
-48.1152,-103.8338
-56.6014,-97.9952
-60.2513,-78.7523
-60.2488,-78.6946
-60.2513,-78.5436
-60.2463,-78.4548
-60.2386,-78.6324
-60.2437,-78.5747
-57.3659,-61.6849
-48.9737,-17.5664
-40.5816,15.6483
-32.1615,40.0159
-23.7437,61.1965
-15.3137,82.4952
-6.972,105.9695
1.4448,135.2513
9.8087,176.5078
14.096,196.9451
14.0978,195.7552
14.1094,194.2944
14.112,193.3398
14.0973,192.656
14.1079,192.8336
14.11,192.656
14.0947,191.9101
22.2824,294.6828
30.3809,472.7712
34.5186,605.0388
34.5211,600.954
34.5211,599.4444
42.1513,950.9148
50.4393,1054.456
58.9178,1073.37
57.0128,594.6048
50.3174,-204.9104
42.103,-348.4334
33.3807,-248.1649
24.7487,-196.4212
16.1679,-165.945
7.6566,-145.5388
-0.8477,-131.3885
-9.2837,-120.4883
-17.7518,-111.4618
-26.2153,-104.34
-34.7116,-98.0574
-43.2105,-92.725
-51.7017,-88.1651
-60.1853,-84.5642
-60.1447,-67.821
-60.1421,-67.821
-56.073,-50.1276
-47.6682,-16.9408
-39.2582,8.0524
-30.8127,26.2537
-22.3759,41.9824
-13.9819,56.6988
-5.5623,71.6527
2.8631,87.9164
11.286,107.2793
19.7256,131.9746
28.1838,162.9569
36.6166,206.5666
44.9859,280.8611
53.5,268.62
59.6036,285.7451
59.2303,249.195
59.2303,249.6124
58.1203,144.3355
50.0888,-67.7899
41.6509,-110.2408
33.1394,-117.6556
24.6192,-118.5524
16.0846,-116.1992
7.5766,-110.2718
-0.903,-104.2512
-9.3355,-97.8176
-17.8046,-92.13
-26.2585,-87.0062
-34.7675,-82.624
-43.2486,-78.5747
-51.7423,-75.4489
-60.231,-72.1411
-68.6968,-69.1308
-74.93,-48.6979
-66.4769,-27.0094
-58.0619,-15.2132
-49.5656,-7.3486
-41.1099,-1.0333
-32.6517,4.299
-24.1836,8.9164
-15.7338,13.7125
-7.3279,17.883
1.1237,22.0535
9.5618,26.2835
18.0622,31.2882
26.5405,37.4843
35.0622,46.065
43.5813,60.8369
52.0344,97.418
60.2717,256.0193
68.2854,1.7073