File: data_raw/brace_buckling_tests/brace-displacement-Black_Strut-15.csv
Displacement [mm],Force [kN]
0,0
-2.40137,-272.624
-4.2024,-272.624
-6.00343,-252.262
0.814751,338.235
3.25901,538.462
3.25901,440.045
1.71527,182.127
0.557461,-7.91855
-2.14408,-398.19
-2.65866,-421.946
-3.55918,-340.498
-4.71698,-292.986
-6.00343,-259.05
0.686106,345.023
3.25901,538.462
3.64494,436.652
1.84391,182.127
0.686106,-1.13122
-0.857633,-174.208
-1.6295,-231.9
-2.40137,-255.656
-3.55918,-262.443
-7.41852,-231.9
-12.1784,-177.602
-2.40137,192.308
2.22985,440.045
4.80274,569.005
4.54545,341.629
2.87307,53.1674
1.58662,-92.7602
0.171527,-204.751
-0.986278,-225.113
-4.07376,-214.932
-6.64666,12.4434
-0.343053,246.606
4.15952,450.226
7.89022,633.484
6.08919,317.873
4.41681,56.5611
3.00172,-109.729
1.71527,-194.57
0.943396,-211.538
-4.2024,-197.964
-10.7633,-160.633
-11.9211,-11.3122
-4.07376,148.19
2.22985,304.299
6.34648,470.588
9.8199,613.122
9.30532,419.683
8.01887,205.882
6.73242,12.4434
5.06003,-143.665
3.64494,-197.964
-0.728988,-191.176
-8.19039,-153.846
-17.7101,-119.91
-4.97427,114.253
1.71527,226.244
6.21784,358.597
10.2058,528.281
13.2933,647.059
10.3345,165.158
8.66209,-52.0362
7.50429,-157.24
6.21784,-194.57
4.6741,-197.964
0.171527,-177.602
-6.64666,-150.452
-16.0377,-116.516
-30.3173,-85.9729
-23.1132,-11.3122
-14.494,63.3484
-5.36021,138.009
2.87307,222.851
7.76158,324.661
12.1355,477.376
16.2521,630.09
19.4683,680.995
16.6381,253.394
14.9657,22.6244
13.422,-147.059
11.8782,-204.751
9.17667,-201.357
5.70326,-174.208
-0.0857633,-147.059
-6.51801,-123.303
-14.8799,-102.941
-26.7153,-48.6425
-16.8096,29.4118
-9.21955,80.3167
3.77358,168.552
9.69125,243.213
13.2933,328.054
17.9245,480.769
21.1407,602.941
23.3276,680.995
22.1698,361.991
19.7256,5.65611
18.0532,-136.878
16.8954,-194.57
14.0652,-194.57
10.9777,-170.814
7.63293,-157.24
2.74443,-133.484
-1.50086,-119.91
-7.54717,-106.335
-27.3585,-79.1855
-40.8662,-65.6109
-44.5969,-28.2805
-32.3756,29.4118
-21.8268,63.3484
-12.693,87.1041
2.35849,144.796
8.01887,185.52
13.6792,246.606
18.0532,331.448
21.6552,436.652
25.3859,579.186
28.2161,670.814
30.6604,697.964
26.801,138.009
24.7427,-109.729
23.5849,-177.602
20.8834,-191.176
15.9949,-164.027
10.0772,-136.878
3.90223,-119.91
-2.91595,-102.941
-12.8216,-79.1855
-26.9726,-48.6425
-49.2281,-31.6742
-38.9365,5.65611
-27.4871,32.8054
-17.3242,49.7738
-6.38937,73.5294
2.87307,97.2851
7.63293,121.041
12.0069,148.19
16.1235,185.52
19.9828,243.213
24.3568,345.023
27.9588,463.801
31.0463,585.973
33.1046,664.027
35.5489,697.964
34.0051,351.81
30.6604,-72.3982
29.5026,-167.421
27.9588,-197.964
25.1286,-180.995
16.5094,-126.697
9.17667,-89.3665
1.84391,-72.3982
-13.0789,-45.2489
-60.8062,-21.4932
-51.5437,9.04977