File: data_raw/brace_buckling_tests/brace-displacement-Elchalakani_S7C.csv
Displacement [mm],Force [kN]
0,0
5.396526,343.3223
5.310411,328.0943
-5.324763,-340.5536
-0.1148197,9.69055
5.310411,326.71
-5.410878,-340.5536
-0.02870492,11.07491
5.310411,325.3256
-5.496993,-339.1692
5.396526,344.7067
-5.023362,-337.7849
-7.52069,-452.6871
-9.673559,-484.5275
-10.96528,-492.8337
-7.865149,-285.179
-3.344124,5.537457
0.3588115,203.5015
3.932575,354.3972
6.429903,433.306
10.13284,495.6024
9.099461,423.6155
5.48264,207.6546
1.994992,6.921821
0.05740985,-110.7491
-6.831772,-415.3093
-9.587445,-473.4526
-10.96528,-483.1431
-8.037379,-285.179
-3.559411,1.384364
0.05740985,199.3485
3.717288,358.5503
6.214616,434.6904
10.26201,506.6773
9.960609,459.6089
5.8271,217.3452
2.253337,11.07491
-0.8467953,-155.0488
-6.358141,-386.2376
-8.812412,-449.9184
-10.87917,-470.6838
-7.822092,-258.8761
-2.526033,69.21821
1.951935,299.0227
5.740985,438.8435
9.745322,509.446
10.99399,519.1366
8.798059,386.2376
4.061747,109.3648
0.3157542,-99.67423
-4.076099,-305.9445
-7.047059,-413.9249
-9.415215,-460.9933
-12.38617,-477.6057
-15.52936,-470.6838
-16.04605,-454.0715
-14.23764,-330.8631
-10.27636,-98.28986
-2.91355,254.723
1.951935,394.5438
6.817419,476.2213
10.34813,519.1366
15.04138,545.4395
15.38584,494.218
12.07042,308.7132
8.539715,106.596
4.707608,-94.13677
1.478304,-228.4201
-3.946927,-375.1627
-7.606805,-429.1529
-10.92222,-445.7653
-16.13217,-436.0747
-14.2807,-321.1725
-10.01802,-71.98694
-3.085779,245.0325
0.4449263,339.1692
4.277034,409.7718
11.72596,505.293
16.20393,535.749
14.56775,427.7686
10.52035,204.8859
7.291051,33.22474
3.114484,-167.5081
0.7893854,-253.3387
-3.645525,-364.0878
-7.779034,-415.3093
-12.04172,-424.9998
-15.22796,-416.6936
-15.35713,-357.166
-11.56808,-145.3582
-7.348461,77.5244
-3.258009,233.9576
0.3157542,326.71
4.793722,408.3875
10.73564,480.3744
15.12749,517.7522
15.12749,455.4558
10.95093,217.3452
7.678567,41.53093
3.372829,-160.5863
-1.492656,-319.7881
-4.937247,-379.3158
-8.037379,-405.6187
-11.13751,-405.6187
-14.84045,-393.1594
-19.27536,-359.9347
-21.16988,-330.8631
-21.5574,-308.7132
-19.61982,-213.1921
-16.82109,-83.06186
-13.33344,62.29639
-9.113813,181.3517
-4.635845,276.8729
0.4018689,355.7816
9.702264,473.4526
17.58177,530.2115
21.5861,542.6708
16.97896,263.0292
12.37182,12.45928
9.013346,-137.0521
4.578435,-279.6416
1.607476,-340.5536
-2.095459,-383.4689
-4.377501,-384.8533
-6.53037,-354.3972
-10.14719,-305.9445
-13.20426,-282.4103
-16.47663,-257.4918
-19.5337,-238.1107
-21.42823,-224.267
-20.91154,-191.0423
-18.11281,-95.52113
-12.60146,49.83711
-8.51101,130.1302
-3.774697,206.2703
1.219959,279.6416
7.721625,375.1627
13.18991,448.534
18.44291,506.6773
21.54305,524.6741
17.23731,264.4136
12.63017,11.07491
9.185576,-138.4364
4.66455,-278.2572
1.86582,-319.7881
-1.062082,-310.0976
-4.980304,-281.0259
-8.812412,-254.723
-12.30006,-229.8045
-16.34745,-204.8859
-19.8351,-186.8892
-21.47128,-178.583
-20.48096,-143.9739
-17.16554,-56.75893
-12.77369,35.99347
-4.635845,148.127
1.435246,227.0357
8.884174,332.2474
15.12749,420.8467
20.3805,494.218
20.07909,422.2311
14.91221,117.671
11.25233,-60.91203
7.549395,-200.7328
4.965952,-271.3354
3.114484,-285.179
0.746328,-275.4885
-3.344124,-247.8012
-6.228968,-225.6514
-8.640182,-209.039
-13.33344,-189.6579
-18.15586,-166.1237
-23.8825,-149.5113
-26.72428,-141.2052
-22.37549,-48.45275
-18.02669,19.3811
-11.99866,77.5244
-2.526033,166.1237
5.267354,243.6481
11.89819,332.2474
17.45259,418.078
21.45693,477.6057
23.95426,487.2962
25.71961,474.8369
26.75299,380.7002
26.45159,346.0911
20.3805,31.84038
16.72062,-117.671
14.18023,-195.1954
12.63017,-224.267
10.73564,-238.1107
8.195256,-243.6481
5.48264,-233.9576
2.597796,-220.1139
-1.320426,-197.9641
-4.205271,-182.7361
-8.381838,-164.7393
-13.85013,-145.3582
-20.69625,-127.3615
-24.95893,-119.0553
-26.16454,-99.67423
-22.71995,-48.45275
-16.003,13.84364
-3.214951,91.36804
9.61615,173.0455
19.69158,258.8761
23.86814,282.4103
26.75299,260.2605
25.20292,177.1986
22.61948,67.83385
19.77769,-19.3811
17.06508,-71.98694
13.4052,-105.2117
7.893854,-119.0553
4.147862,-117.671
0.4879837,-114.9022
-6.616485,-112.1335
-13.20426,-101.0586
-20.95459,-99.67423
-23.71027,-52.60584
-16.99331,-4.153093