File: data_raw/brace_buckling_tests/brace-displacement-Black_Strut-1.csv
Displacement [mm],Force [kN]
0,0
-3.85638,-200
-2.26064,-100
-0.664894,30
0.531915,300
2.39362,665
4.12234,940
5.45213,1020
4.78723,830
0.398936,235
2.12766,550
3.45745,830
3.45745,705
2.79255,565
2.26064,395
0.797872,100
0.132979,-60
-1.8617,-305
-2.92553,-330
-2.65957,-265
-0.797872,-50
1.06383,410
3.19149,760
4.78723,990
5.31915,915
-0.930851,-195
-2.39362,-250
-4.3883,-255
-3.7234,-155
-1.72872,-35
4.25532,740
5.98404,925
3.45745,370
-0.531915,-230
-2.12766,-255
-5.31915,-210
-4.12234,-90
-0.664894,55
1.72872,345
5.18617,850
7.04787,985
4.92021,435
2.65957,-30
1.59574,-155
0,-200
-2.79255,-200
-7.31383,-170
-3.98936,-45
1.46277,185
4.25532,515
6.64894,850
6.78191,735
5.05319,375
3.59043,85
2.26064,-85
-0.265957,-210
-2.5266,-200
-4.92021,-185
-8.90957,-160
-6.51596,-75
-1.06383,70
3.98936,400
5.31915,590
7.18085,825
8.64362,955
6.38298,385
4.78723,35
3.19149,-115
0.398936,-185
-5.71809,-170
-12.8989,-120
-4.92021,10
0.265957,135
4.3883,330
7.04787,660
8.64362,855
10.2394,960
6.78191,165
5.31915,-65
2.92553,-150
1.06383,-175
-2.12766,-200
-10.9043,-140
-16.8883,-105
-5.98404,35
2.92553,225
6.51596,425
8.7766,715
10.5053,900
9.84043,555
7.97872,120
6.51596,-55
4.78723,-125
0.531915,-150
-21.8085,-95
-12.234,-5
-2.92553,100
5.18617,280
7.84574,455
10.2394,750
11.9681,900
11.1702,580
9.04255,165
7.57979,-30
6.51596,-95
3.98936,-125
-1.72872,-140
-27.2606,-90
-19.9468,-25
-4.25532,100
5.05319,245
8.1117,420
10.1064,630
12.234,850
13.4309,915
11.3032,430
9.9734,190
8.24468,-25
6.51596,-95
2.5266,-140
-24.734,-95
-38.1649,-80
-18.3511,30
-3.98936,100
5.05319,240
8.37766,380
11.3032,640
12.766,815
14.4947,915
12.367,380
10.1064,60
7.97872,-85
6.91489,-115
4.65426,-130
-39.4947,-80
-43.484,-50
-31.6489,-5
-18.75,50
-6.11702,100
5.58511,235
8.51064,335
11.0372,485
12.766,670
14.3617,835
16.3564,985
17.8191,1045
15.1596,400
13.0319,-5
11.7021,-90
9.30851,-145
5.31915,-145
-27.1277,-95
-63.8298,-70
-46.4096,-5
-31.7819,30
-16.6223,75
-2.92553,125
4.92021,180
8.51064,260
10.7713,345
13.8298,550
15.8245,745
17.2872,880
20.6117,1055
23.5372,1120
19.2819,5
19.4149,0