File: data_raw/brace_buckling_tests/brace-displacement-Zayas_Strut2.csv
Displacement [mm],Force [kN]
0, 0
-0.0932,-5.18
-0.33,-47.3
-0.549,-82.8
-0.787,-123
-1.02,-156
-1.3,-180
-1.59,-189
-1.66,-143
-1.28,-72.5
-0.969,-20.7
-0.659,31.1
-0.349,85
-0.075,134
0.18,163
0.436,186
0.746,194
1.64,160
1.35,101
1.24,79.8
0.965,26.6
0.728,-20
0.564,-46.6
0.253,-91.7
0.0162,-119
-0.257,-143
-0.568,-161
-0.932,-172
-1.3,-167
-1.83,-152
-2.43,-139
-2.88,-129
-3.34,-120
-3.58,-107
-3.32,-62.8
-3.03,-24.4
-2.68,14
-2.23,54.7
-1.72,87.2
-1.11,117
-0.531,139
0.107,158
0.728,174
1.4,185
2.22,191
2.99,192
3.54,190
3.15,110
2.86,58.4
2.55,5.18
2.17,-51
1.9,-82.8
1.51,-111
1.06,-128
0.6,-136
0.0709,-138
-0.568,-132
-1.5,-114
-2.14,-103
-2.67,-94.6
-3.21,-88
-4,-81.3
-4.84,-77.6
-5.57,-71
-5.11,-38.4
-4.51,-7.39
-3.94,16.3
-3.18,39.9
-1.68,70.2
0.418,112
1.8,139
3.17,167
4.05,182
5.22,187
4.72,88.7
4.23,2.22
3.92,-40.7
3.72,-62.1
3.46,-82.8
3.1,-99.8
2.63,-112
2.04,-118
1.57,-118
0.782,-112
-0.13,-103
-1.26,-93.2
-2.34,-83.5
-3.32,-74.7
-4.38,-69.5
-5.55,-63.6
-6.62,-58.4
-7.03,-42.9
-6.33,-17
-5.51,7.39
-4.33,28.1
-2.81,48.1
-1.66,59.1
-0.44,73.9
0.399,83.5
1.24,96.1
2.3,114
3.52,134
4.34,148
5.14,163
6.11,178
6.68,186
6.97,174
6.82,135
6.6,92.4
6.33,54.7
5.96,11.1
5.64,-27.4
5.33,-57.7
4.98,-78.4
4.6,-90.2
4.08,-97.6
3.37,-101
2.53,-99.1
1.88,-96.1
1,-89.5
0.253,-79.1
-0.349,-70.2
-1.17,-60.6
-2.19,-52.5
-3.27,-46.6
-4.29,-40.7
-5.24,-37.7
-6.28,-34
-8.6,-20.7
-7.46,-3.7
-5.75,11.1
-3.61,22.2
-2.23,29.6
-1.43,34.7
-0.495,42.9
0.381,51
1.24,60.6
2.17,73.9
3.14,89.5
4.52,115
5.76,139
6.77,159
7.62,176
8.41,191
8.66,166
8.55,138
8.3,94.6
8.04,56.9
7.73,11.8
7.85,5.89
7.4,-47.1
7.07,-68.7
6.73,-82.4
6.39,-92.2
5.86,-96.8
5.18,-93.5
4.53,-85
3.66,-74.6
2.6,-64.8
1.77,-58.2
0.494,-49.1
-0.539,-43.8
-2.11,-38.6
-4.35,-34
-7.34,-28.8
-9.04,-24.2
-8.1,-7.2
-6.71,3.92
-5.27,11.1
-3.39,19
-1.86,24.9
-0.337,30.7
1.14,37.9
2.22,45.1
2.96,51.7
3.81,60.2
4.55,70
5.41,85
6.17,101
7.05,122
8.01,147
8.73,167
8.91,158
8.75,122
8.39,66.1
7.99,19.6
7.2,-49.1
6.8,-64.8
6.35,-72.6
5.9,-75.2
5.32,-72.6
3.99,-63.5
3.05,-56.9
2,-49.7
0.942,-43.2
-0.202,-38.6
-1.64,-34
-3.95,-29.4
-6.66,-24.9
-9.18,-20.3
-8.12,-6.54
-6.71,3.27
-5.25,11.8
-2.67,20.9
-0.18,28.1
1.26,34
2.56,40.6
3.66,49.1
4.8,60.8
5.9,75.9
6.71,91.6
7.56,111
8.23,129
8.84,145
8.62,98.8
8.19,43.2
7.72,-11.1
7.34,-41.9
6.91,-54.9
6.37,-62.8
5.52,-64.8
4.71,-61.5
3.75,-54.9
2.56,-46.4
1.5,-40.6
0.494,-36
-0.426,-32.7
-1.86,-29.4
-3.55,-26.2
-5.59,-22.9
-8.06,-19
-8.53,-10.5
-7.02,1.31
-5.47,9.81
-3.46,15
-1.75,19
0.0673,24.2
2.38,30.1
3.97,35.3
5.43,43.2
6.57,54.3
7.7,67.4
8.71,81.8
8.62,52.3
8.46,32.1
8.17,11.1
7.9,-3.27
7.49,-17
6.91,-26.2
6.13,-30.1
0.0673,-25.5
-2.18,-23.5
-5.41,-20.9
-8.86,-18.3
-7.79,-8.5
-6.51,-1.31
-5.12,3.27
-3.48,5.23
-1.86,7.85
0.381,11.1
3.88,17
7.9,22.9
8.73,22.2
8.8,18.3
8.55,9.16
8.28,0.654